Reference Amplitude (V)	6300Hz	6350Hz	6400Hz	6450Hz	6500Hz	6550Hz	6600Hz	6650Hz	6700Hz	6750Hz	6800Hz	6850Hz	6900Hz	6950Hz	7000Hz	7050Hz	7100Hz	7150Hz	7200Hz	7250Hz	7300Hz	7350Hz	7400Hz	7450Hz	7500Hz	7550Hz	7600Hz	7650Hz	7700Hz	7750Hz	7800Hz	7850Hz	7900Hz	7950Hz	8000Hz
0.02	0.9899	1.46897	1.11292	0.992027	0.960704	0.942171	0.930092	0.924388	0.918293	0.909578	0.898126	0.894413	0.889038	0.898816	0.95426	0.8986	0.890354	1.22835	1.01155	0.877934	0.851123	0.83703	0.818305	0.805683	0.803972	0.787406	0.769611	0.765186	0.761794	0.75484	0.745175	0.732632	0.750021	0.731294	0.718929
0.023	0.990784	1.5509	1.11129	0.991444	0.959821	0.94539	0.934315	0.926885	0.919041	0.912384	0.899916	0.896723	0.88468	0.901952	0.954086	0.899034	0.88968	1.25476	1.00768	0.874985	0.855214	0.82696	0.812375	0.802659	0.794042	0.788212	0.77646	0.770559	0.758151	0.753414	0.742822	0.735333	0.749951	0.73159	0.722122
0.026	0.991678	1.62925	1.1069	0.990809	0.958084	0.943826	0.932361	0.924903	0.916766	0.908869	0.902345	0.887459	0.887235	0.899761	0.950195	0.895194	0.89013	1.27788	1.00645	0.879143	0.850255	0.833213	0.815143	0.804676	0.789195	0.785561	0.774816	0.766451	0.762484	0.753013	0.745058	0.736253	0.753186	0.73578	0.714038
0.029	0.992786	1.70583	1.10299	0.990802	0.959828	0.943635	0.936854	0.92851	0.915781	0.912468	0.901545	0.891892	0.891781	0.903676	0.950347	0.899442	0.887543	1.31183	1.00082	0.877896	0.851203	0.832443	0.81918	0.805077	0.796381	0.782475	0.77898	0.768408	0.761178	0.755899	0.743065	0.73497	0.75302	0.735281	0.715739
0.032	0.996807	1.78378	1.0988	0.99104	0.960308	0.94369	0.934812	0.92845	0.919036	0.912634	0.901101	0.888495	0.89006	0.903275	0.952151	0.89752	0.887214	1.35014	0.997785	0.877526	0.852829	0.835946	0.815438	0.805382	0.797747	0.78459	0.776174	0.766146	0.761574	0.751947	0.746981	0.736328	0.75997	0.733943	0.719882
0.035	0.994387	1.86533	1.09423	0.987942	0.960075	0.942154	0.932341	0.92706	0.920346	0.910588	0.899988	0.88941	0.887548	0.902844	0.949403	0.893422	0.892588	1.37995	0.996291	0.87637	0.85356	0.833861	0.817299	0.807377	0.796532	0.786648	0.774152	0.768487	0.764987	0.75533	0.745161	0.738674	0.775032	0.734016	0.723016
0.038	0.993152	1.95247	1.09231	0.98975	0.960275	0.944098	0.933764	0.925701	0.918172	0.909925	0.902502	0.892624	0.8899	0.900714	0.949507	0.892797	0.889456	1.42109	0.993294	0.880247	0.85403	0.834194	0.818195	0.809007	0.798658	0.789351	0.775217	0.770966	0.76158	0.75579	0.748194	0.740434	0.789207	0.735507	0.720216
0.041	0.997068	2.08194	1.09041	0.990917	0.959151	0.943734	0.935734	0.927326	0.918878	0.912637	0.903312	0.893753	0.890468	0.903458	0.94688	0.897464	0.887402	1.45969	0.992224	0.877972	0.852078	0.836191	0.821053	0.807858	0.798286	0.789082	0.779094	0.768427	0.764999	0.758657	0.751643	0.735085	0.803526	0.73887	0.723084
0.044	0.998921	2.23941	1.08676	0.989371	0.960446	0.94486	0.934406	0.927875	0.920085	0.910553	0.903279	0.890211	0.887711	0.90534	0.943591	0.894131	0.891661	1.49529	0.989395	0.879527	0.855707	0.834893	0.819086	0.8089	0.796604	0.788794	0.779424	0.772168	0.766505	0.758004	0.747099	0.739103	0.816606	0.740446	0.724796
0.047	1.00024	2.36813	1.08233	0.989415	0.960467	0.947557	0.934174	0.928749	0.920397	0.907916	0.89972	0.89254	0.889288	0.904294	0.944585	0.893069	0.889497	1.54054	0.98558	0.877397	0.853558	0.835729	0.819169	0.807684	0.798693	0.789631	0.781355	0.774179	0.771249	0.759853	0.750809	0.740771	0.825856	0.741431	0.724623
0.05	0.998934	2.28816	1.07933	0.986068	0.959252	0.946383	0.934092	0.928039	0.920199	0.90945	0.899715	0.890282	0.887799	0.90258	0.940274	0.894019	0.890927	1.58512	0.982583	0.877438	0.854332	0.834703	0.820178	0.807763	0.798491	0.792369	0.777447	0.775649	0.769506	0.761543	0.752279	0.743304	0.827102	0.743283	0.725843
0.053	1.00114	2.06155	1.07661	0.986056	0.961195	0.945722	0.935583	0.924353	0.920909	0.907077	0.899293	0.891771	0.889924	0.905587	0.941958	0.893486	0.889477	1.63252	1.02234	0.877372	0.852649	0.836369	0.821163	0.807554	0.801801	0.789811	0.779971	0.773567	0.767616	0.760375	0.750999	0.743518	0.826464	0.741024	0.727776
0.056	1.0023	1.94766	1.07307	0.986607	0.960968	0.943831	0.931932	0.92648	0.920746	0.907733	0.897374	0.891797	0.887141	0.903935	0.938374	0.89178	0.88839	1.69034	1.01163	0.899613	0.871517	0.848401	0.826118	0.810804	0.798448	0.789983	0.780752	0.774657	0.768199	0.761265	0.753213	0.744482	0.827217	0.741604	0.725394
0.059	1.00331	1.86897	1.06898	0.983767	0.958085	0.943648	0.934134	0.925451	0.917821	0.905268	0.897793	0.891999	0.886303	0.904139	0.936919	0.892821	0.888359	1.74231	1.00554	0.898812	0.870163	0.84926	0.82929	0.812768	0.797757	0.789581	0.780462	0.772757	0.767571	0.758852	0.753676	0.743879	0.82533	0.740369	0.723712
0.062	1.00156	1.80679	1.06499	0.979989	0.956607	0.942219	0.932849	0.926396	0.91536	0.904019	0.897523	0.888588	0.886041	0.904126	0.936159	0.892336	0.888738	1.80104	1.00045	0.89526	0.86837	0.846756	0.826277	0.812339	0.797066	0.792048	0.779839	0.773204	0.768587	0.76114	0.749932	0.740912	0.821669	0.739869	0.726164
0.065	1.00031	1.75481	1.06199	0.978274	0.954883	0.941943	0.93104	0.921855	0.915704	0.902623	0.895789	0.889009	0.886068	0.902966	0.936277	0.891226	0.94756	1.8576	0.9942	0.892419	0.867058	0.845948	0.823868	0.810048	0.799778	0.790111	0.781578	0.773271	0.766469	0.759353	0.752331	0.741054	0.817893	0.739461	0.726666
0.068	1.00189	1.70947	1.05664	0.97582	0.952684	0.939617	0.92979	0.920792	0.91379	0.901855	0.895151	0.887181	0.885637	0.901564	1.0207	0.955648	0.93803	1.9095	0.989392	0.889894	0.865496	0.843767	0.825162	0.810442	0.798471	0.790199	0.779119	0.774043	0.767345	0.758594	0.750827	0.741195	0.814752	0.739434	0.725019
0.071	1.00188	1.66826	1.05402	0.973881	0.949519	0.936341	0.92731	0.919872	0.91124	0.901246	0.894699	0.885562	0.883054	0.902307	1.00714	0.948098	0.928999	1.94734	0.983311	0.885139	0.862501	0.84106	0.824188	0.809653	0.795141	0.789806	0.779577	0.771982	0.766997	0.758283	0.751578	0.742873	0.812439	0.737145	0.722457
0.074	1.00004	1.63144	1.05039	0.970789	0.948587	0.93459	0.925849	0.917422	0.909741	0.898307	0.893582	0.885671	0.880572	0.901349	1.00023	0.942845	0.926159	1.97638	0.978734	0.882902	0.857848	0.83588	0.820545	0.808244	0.794331	0.78681	0.778894	0.770542	0.76256	0.757767	0.749567	0.741129	0.806262	0.738702	0.72319
0.077	0.99948	1.59911	1.0456	0.969025	0.947254	0.932312	0.922284	0.915219	0.908225	0.897832	0.892244	0.882214	0.878846	1.00234	0.992104	0.936808	0.920585	1.99596	0.975386	0.88089	0.856354	0.83605	0.817925	0.805194	0.792607	0.788503	0.775681	0.767567	0.762101	0.757222	0.74626	0.739375	0.802467	0.736222	0.724331
0.08	0.999212	1.57078	1.04168	0.966402	0.945254	0.931681	0.921862	0.912697	0.906646	0.896056	0.890178	0.880028	0.878997	0.99114	0.983276	0.928431	0.917271	2.00577	0.970245	0.875285	0.852875	0.833136	0.816075	0.803973	0.790556	0.783462	0.774135	0.767113	0.761558	0.754849	0.745185	0.738433	0.797915	0.732043	0.720693
0.083	0.997214	1.54505	1.03853	0.964739	0.942756	0.928257	0.919347	0.911454	0.903642	0.894506	0.887227	1.01693	1.00284	0.983476	0.97509	0.925014	0.916323	1.99848	0.96514	0.87157	0.850729	0.829729	0.814696	0.799767	0.791258	0.783115	0.774313	0.765796	0.760291	0.751949	0.742067	0.737237	0.795356	0.731678	0.718881
0.086	0.996094	1.52023	1.03557	0.962133	0.940013	0.926449	0.916885	0.910939	0.901623	0.893476	1.03909	0.998053	0.990327	0.978789	0.971001	0.918983	0.911697	1.97278	0.96292	0.869116	0.846255	0.829768	0.811562	0.799019	0.78865	0.780418	0.77035	0.763025	0.757762	0.748204	0.744505	0.733443	0.788868	0.729636	0.715364
0.089	0.995145	1.49699	1.03108	0.959868	0.938135	0.924535	0.916286	0.907969	0.899333	0.891718	1.02136	0.988971	0.978182	0.971447	0.967083	0.914606	0.90572	1.93733	0.957188	0.866522	0.845597	0.825333	0.80965	0.795078	0.786758	0.778112	0.769192	0.761264	0.755146	0.747596	0.738974	0.732028	0.785204	0.728773	0.715744
0.092	0.994219	1.47611	1.02788	0.957395	0.935044	0.92179	0.913547	0.904333	0.896544	0.888409	1.01048	0.980387	0.97548	0.966367	0.958028	0.911877	0.902454	1.89886	0.953953	0.864336	0.842521	0.82438	0.806779	0.793331	0.786461	0.774823	0.76551	0.759162	0.75157	0.747014	0.738488	0.731452	0.783236	0.724911	0.711955
0.095	0.992263	1.45519	1.02506	0.95544	0.933997	0.920117	0.911545	0.903069	0.89592	1.04525	0.999283	0.976261	0.963644	0.962025	0.956339	0.905642	0.899871	1.85716	0.950467	0.860808	0.840291	0.82036	0.803344	0.792874	0.781164	0.773138	0.764303	0.756494	0.751375	0.742542	0.73618	0.729141	0.7789	0.722271	0.711944
0.098	0.991748	1.43807	1.02193	0.953264	0.931712	0.918449	0.909755	0.902197	0.893626	1.02628	0.984872	0.965908	0.962198	0.95406	0.953581	0.902365	0.893391	1.81794	0.948125	0.858682	0.838082	0.818209	0.801096	0.79027	0.779653	0.770855	0.76313	0.754157	0.749355	0.739957	0.734443	0.727322	0.774122	0.720685	0.708773
0.101	0.99103	1.42183	1.01959	0.951474	0.930623	0.916657	0.908491	0.899694	0.892487	1.01021	0.984644	0.958741	0.956993	0.954221	0.948532	0.898157	0.895126	1.78132	0.945069	0.856142	0.834748	0.814776	0.798441	0.786949	0.778445	0.769666	0.760063	0.752121	0.746835	0.738585	0.731895	0.724569	0.76991	0.71825	0.705444
0.104	0.990855	1.40761	1.0165	0.949536	0.928253	0.915898	0.906294	0.899155	0.890719	1.00557	0.973782	0.949828	0.95034	0.94801	0.945183	0.895904	0.888585	1.74816	0.941517	0.853837	0.831856	0.812501	0.796166	0.785366	0.775958	0.768235	0.758198	0.749766	0.743903	0.734478	0.728323	0.721376	0.765331	0.71676	0.70367
0.107	0.988941	1.39339	1.01342	0.947145	0.926336	0.913073	0.905443	0.896759	0.889255	0.9932	0.973829	0.945496	0.940927	0.943985	0.941183	0.88952	0.889533	1.71754	0.939911	0.852327	0.830282	0.810682	0.794171	0.783178	0.77318	0.763696	0.755199	0.748676	0.742256	0.736077	0.726609	0.720793	0.761201	0.713634	0.70241
0.11	0.987704	1.37986	1.01059	0.945393	0.924773	0.911956	0.904039	0.896131	0.887312	0.986004	0.964002	0.942284	0.938429	0.938827	0.934769	0.886955	0.886982	1.69162	0.937058	0.850665	0.825555	0.807761	0.791249	0.780342	0.772524	0.761384	0.753522	0.747063	0.739614	0.732603	0.724478	0.717832	0.759141	0.712153	0.699454
0.113	0.987598	1.36715	1.00777	0.943948	0.923514	0.910101	0.901957	0.894199	0.885636	0.982105	0.961693	0.940806	0.931711	0.938644	0.933335	0.883565	0.885965	1.66629	0.93406	0.847684	0.825636	0.805252	0.789277	0.77953	0.769443	0.759577	0.752899	0.744403	0.738178	0.73165	0.723254	0.716789	0.756265	0.709044	0.698455
0.116	0.98685	1.35458	1.00557	0.941771	0.922433	0.907902	0.900895	0.892002	0.884994	0.976462	0.953228	0.935848	0.927858	0.937684	0.926847	0.88259	0.88128	1.64365	0.93197	0.846143	0.822175	0.804023	0.788893	0.777941	0.767685	0.757467	0.750331	0.743271	0.737691	0.727102	0.722745	0.714259	0.751942	0.706628	0.695228
0.119	0.985906	1.34353	1.00352	0.941304	0.919851	0.907316	0.898947	0.891584	0.882241	0.968472	0.953589	0.933559	0.924478	0.935056	0.924302	0.879353	0.880783	1.62436	0.929616	0.843633	0.819773	0.802166	0.785893	0.776389	0.76578	0.756341	0.747795	0.741027	0.733886	0.726222	0.718775	0.711843	0.750163	0.705459	0.693683
0.122	0.984806	1.33187	1.00014	0.93893	0.918382	0.905522	0.897526	0.890117	0.88069	0.968477	0.944027	0.924475	0.923309	0.930815	0.921035	0.876406	0.879357	1.60238	0.927189	0.842199	0.819389	0.798428	0.783812	0.773662	0.764199	0.75418	0.745703	0.737975	0.732144	0.724981	0.717558	0.708941	0.74679	0.704322	0.691765
0.125	0.9842	1.32199	0.998332	0.938252	0.918049	0.905007	0.895866	0.888391	1.00753	0.959316	0.93989	0.922292	0.917604	0.926397	0.917449	0.87405	0.875655	1.58468	0.924971	0.839586	0.817406	0.797695	0.782426	0.771692	0.762336	0.753107	0.744424	0.736289	0.730581	0.722377	0.71608	0.708554	0.743946	0.70053	0.690145
0.128	0.98259	1.31199	0.996798	0.935644	0.915997	0.903306	0.89409	0.88739	0.9913	0.952933	0.936305	0.920455	0.913765	0.924253	0.912679	0.871137	0.874843	1.56669	0.923336	0.838885	0.816514	0.795258	0.779521	0.769606	0.75964	0.751651	0.742467	0.73549	0.728628	0.720776	0.714161	0.706041	0.742257	0.699079	0.68831
